wavelength_axis,light_level
1250.0,-58.75
1250.015,-58.37
1250.03,-58.08
1250.045,-58.51
1250.06,-58.62
1250.075,-59.0
1250.09,-58.28
1250.105,-58.54
1250.12,-58.7
1250.135,-59.19
1250.15,-59.02
1250.165,-59.0
1250.18,-58.63
1250.195,-58.74
1250.21,-59.11
1250.225,-59.04
1250.24,-58.89
1250.255,-58.6
1250.27,-58.47
1250.285,-58.81
1250.3,-59.25
1250.315,-58.89
1250.33,-58.74
1250.345,-58.29
1250.36,-58.8
1250.375,-59.05
1250.39,-58.9
1250.405,-58.67
1250.42,-58.5
1250.435,-58.39
1250.45,-58.68
1250.465,-58.95
1250.48,-58.53
1250.495,-58.32
1250.51,-57.98
1250.525,-58.49
1250.54,-58.38
1250.555,-58.58
1250.57,-58.15
1250.585,-58.16
1250.6,-58.23
1250.615,-58.65
1250.63,-58.67
1250.645,-58.68
1250.66,-58.22
1250.675,-58.33
1250.69,-58.77
1250.705,-58.67
1250.72,-58.65
1250.735,-58.15
1250.75,-58.48
1250.765,-58.52
1250.78,-58.98
1250.795,-58.66
1250.81,-58.51
1250.825,-58.16
1250.84,-58.41
1250.855,-58.72
1250.87,-58.76
1250.885,-58.49
1250.9,-58.31
1250.915,-58.33
1250.93,-58.7
1250.945,-58.99
1250.96,-58.39
1250.975,-58.4
1250.99,-58.1
1251.005,-58.7
1251.02,-58.7
1251.035,-58.78
1251.05,-58.4
1251.065,-58.8
1251.08,-58.77
1251.095,-59.11
1251.11,-58.75
1251.125,-58.47
1251.14,-58.49
1251.155,-58.86
1251.17,-59.07
1251.185,-59.06
1251.2,-58.86
1251.215,-58.55
1251.23,-58.99
1251.245,-58.95
1251.26,-59.21
1251.275,-58.73
1251.29,-58.63
1251.305,-58.34
1251.32,-58.63
1251.335,-58.51
1251.35,-58.9
1251.365,-58.46
1251.38,-58.51
1251.395,-58.85
1251.41,-59.19
1251.425,-59.13
1251.44,-58.9
1251.455,-59.06
1251.47,-59.07
1251.485,-59.36
1251.5,-59.17
1251.515,-59.59
1251.53,-58.97
1251.545,-59.48
1251.56,-59.33
1251.575,-59.62
1251.59,-59.4
1251.605,-59.28
1251.62,-59.15
1251.635,-59.4
1251.65,-59.25
1251.665,-59.36
1251.68,-59.63
1251.695,-59.31
1251.71,-59.6
1251.725,-59.54
1251.74,-59.89
1251.755,-59.53
1251.77,-59.69
1251.785,-59.41
1251.8,-59.43
1251.815,-59.24
1251.83,-59.45
1251.845,-59.54
1251.86,-59.64
1251.875,-59.66
1251.89,-59.65
1251.905,-60.03
1251.92,-59.6
1251.935,-59.72
1251.95,-59.43
1251.965,-59.56
1251.98,-59.12
1251.995,-59.37
1252.01,-59.24
1252.025,-58.99
1252.04,-59.11
1252.055,-59.03
1252.07,-58.94
1252.085,-59.0
1252.1,-59.19
1252.115,-59.17
1252.13,-59.32
1252.145,-58.84
1252.16,-58.71
1252.175,-58.58
1252.19,-58.39
1252.205,-58.47
1252.22,-58.47
1252.235,-58.48
1252.25,-58.52
1252.265,-58.53
1252.28,-58.52
1252.295,-58.56
1252.31,-58.97
1252.325,-59.03
1252.34,-59.04
1252.355,-58.77
1252.37,-58.71
1252.385,-58.64
1252.4,-58.83
1252.415,-58.4
1252.43,-58.5
1252.445,-58.37
1252.46,-58.19
1252.475,-58.1
1252.49,-58.1
1252.505,-58.03
1252.52,-57.87
1252.535,-58.32
1252.55,-58.14
1252.565,-58.22
1252.58,-57.91
1252.595,-58.2
1252.61,-58.17
1252.625,-58.21
1252.64,-57.82
1252.655,-57.94
1252.67,-57.94
1252.685,-57.88
1252.7,-58.13
1252.715,-58.12
1252.73,-58.1
1252.745,-58.12
1252.76,-58.37
1252.775,-58.33
1252.79,-58.4
1252.805,-58.25
1252.82,-58.24
1252.835,-58.14
1252.85,-58.21
1252.865,-57.96
1252.88,-58.06
1252.895,-57.98
1252.91,-57.84
1252.925,-58.26
1252.94,-58.11
1252.955,-58.08
1252.97,-58.07
1252.985,-58.36
1253.0,-58.34
1253.015,-58.36
1253.03,-58.4
1253.045,-58.26
1253.06,-58.48
1253.075,-58.42
1253.09,-58.54
1253.105,-58.05
1253.12,-58.05
1253.135,-57.84
1253.15,-58.25
1253.165,-57.95
1253.18,-58.08
1253.195,-58.07
1253.21,-58.06
1253.225,-58.11
1253.24,-58.15
1253.255,-58.35
1253.271,-58.12
1253.285,-58.18
1253.3,-58.22
1253.315,-58.24
1253.33,-58.05
1253.345,-58.12
1253.36,-58.0
1253.375,-58.4
1253.391,-58.42
1253.406,-58.5
1253.421,-58.41
1253.435,-58.15
1253.45,-58.3
1253.465,-58.31
1253.48,-58.57
1253.495,-58.16
1253.51,-58.09
1253.526,-58.1
1253.541,-58.1
1253.556,-58.11
1253.571,-58.13
1253.585,-58.17
1253.6,-58.13
1253.615,-58.52
1253.63,-58.4
1253.646,-58.53
1253.661,-58.24
1253.676,-58.41
1253.691,-58.35
1253.706,-58.42
1253.72,-58.15
1253.735,-58.32
1253.75,-58.11
1253.766,-58.23
1253.781,-58.48
1253.796,-58.33
1253.811,-58.32
1253.826,-58.15
1253.841,-58.61
1253.856,-58.43
1253.87,-58.64
1253.885,-58.28
1253.901,-58.46
1253.916,-58.54
1253.931,-58.57
1253.946,-58.51
1253.961,-58.6
1253.976,-58.5
1253.991,-58.37
1254.005,-58.8
1254.021,-58.5
1254.036,-58.73
1254.051,-58.65
1254.066,-58.85
1254.081,-58.85
1254.096,-58.92
1254.111,-58.85
1254.126,-58.69
1254.141,-58.82
1254.156,-58.53
1254.171,-59.09
1254.186,-58.98
1254.201,-59.06
1254.216,-59.07
1254.231,-59.49
1254.246,-59.41
1254.261,-59.42
1254.276,-59.21
1254.291,-59.36
1254.306,-59.18
1254.321,-59.26
1254.336,-59.18
1254.351,-58.72
1254.366,-58.96
1254.381,-58.94
1254.396,-59.36
1254.411,-58.96
1254.426,-59.04
1254.441,-59.03
1254.456,-59.18
1254.471,-59.18
1254.486,-59.08
1254.501,-59.11
1254.516,-58.87
1254.531,-59.14
1254.546,-59.03
1254.561,-59.15
1254.576,-58.7
1254.591,-58.8
1254.606,-58.69
1254.621,-58.57
1254.636,-58.68
1254.651,-58.76
1254.666,-58.71
1254.681,-58.63
1254.696,-58.75
1254.711,-58.63
1254.726,-58.69
1254.741,-58.2
1254.756,-58.38
1254.771,-58.24
1254.786,-58.2
1254.801,-57.98
1254.816,-58.13
1254.831,-58.24
1254.846,-58.16
1254.861,-58.62
1254.876,-58.4
1254.891,-58.4
1254.906,-58.23
1254.921,-58.37
1254.936,-58.25
1254.951,-58.35
1254.966,-57.93
1254.981,-57.97
1254.996,-58.03
1255.011,-58.05
1255.026,-58.17
1255.041,-58.09
1255.056,-58.09
1255.071,-57.89
1255.086,-58.12
1255.101,-57.81
1255.116,-57.97
1255.131,-57.89
1255.146,-57.95
1255.161,-58.03
1255.176,-57.96
1255.191,-57.79
1255.206,-57.87
1255.221,-57.88
1255.236,-57.8
1255.251,-58.11
1255.266,-57.93
1255.281,-57.96
1255.296,-57.82
1255.311,-58.23
1255.326,-57.97
1255.341,-58.11
1255.356,-58.15
1255.371,-58.18
1255.386,-58.12
1255.401,-57.96
1255.416,-58.08
1255.431,-57.76
1255.446,-57.84
1255.461,-57.77
1255.476,-58.13
1255.491,-57.99
1255.506,-58.05
1255.521,-58.15
1255.536,-58.29
1255.551,-58.19
1255.566,-58.11
1255.581,-58.29
1255.596,-58.09
1255.611,-58.25
1255.626,-58.18
1255.641,-58.37
1255.656,-58.03
1255.671,-58.2
1255.686,-58.17
1255.701,-58.3
1255.716,-58.48
1255.731,-58.41
1255.746,-58.48
1255.761,-58.43
1255.776,-58.61
1255.791,-58.33
1255.806,-58.65
1255.821,-58.22
1255.836,-58.18
1255.851,-58.24
1255.866,-58.04
1255.881,-58.08
1255.896,-57.84
1255.911,-57.91
1255.926,-57.94
1255.941,-58.2
1255.956,-57.99
1255.971,-58.19
1255.986,-57.93
1256.001,-58.12
1256.016,-58.43
1256.031,-58.46
1256.046,-58.14
1256.061,-57.98
1256.076,-58.3
1256.091,-58.15
1256.106,-58.54
1256.121,-58.15
1256.136,-58.06
1256.151,-58.0
1256.166,-58.35
1256.181,-58.54
1256.196,-58.23
1256.211,-57.98
1256.226,-57.94
1256.241,-58.23
1256.256,-57.95
1256.271,-57.9
1256.286,-57.75
1256.301,-57.9
1256.316,-58.07
1256.331,-58.38
1256.346,-58.16
1256.361,-57.96
1256.376,-58.01
1256.391,-58.21
1256.406,-58.52
1256.421,-58.14
1256.436,-57.99
1256.451,-57.87
1256.466,-58.28
1256.481,-58.44
1256.496,-58.13
1256.511,-57.79
1256.526,-57.9
1256.541,-58.1
1256.556,-58.45
1256.571,-58.51
1256.586,-58.1
1256.601,-58.07
1256.616,-58.46
1256.631,-58.78
1256.646,-58.52
1256.661,-58.3
1256.676,-58.2
1256.691,-58.15
1256.706,-58.6
1256.721,-58.3
1256.736,-58.15
1256.751,-57.96
1256.766,-58.17
1256.781,-58.41
1256.796,-58.79
1256.811,-58.35
1256.826,-58.17
1256.841,-58.39
1256.856,-58.54
1256.871,-58.97
1256.886,-58.53
1256.901,-58.51
1256.916,-58.35
1256.931,-58.73
1256.946,-58.79
1256.961,-58.51
1256.976,-58.19
1256.991,-58.41
1257.006,-58.92
1257.021,-58.86
1257.036,-58.62
1257.051,-58.35
1257.066,-58.62
1257.081,-58.36
1257.096,-58.95
1257.111,-58.45
1257.126,-58.25
1257.141,-58.3
1257.156,-58.35
1257.171,-58.69
1257.186,-58.15
1257.201,-58.2
1257.216,-58.16
1257.231,-58.44
1257.246,-58.49
1257.261,-58.76
1257.276,-58.44
1257.291,-58.35
1257.306,-58.37
1257.321,-58.42
1257.336,-58.29
1257.351,-57.97
1257.366,-57.98
1257.381,-58.03
1257.396,-58.36
1257.411,-58.09
1257.426,-58.25
1257.441,-58.26
1257.456,-58.51
1257.471,-58.77
1257.486,-58.64
1257.501,-58.82
1257.516,-58.68
1257.531,-58.98
1257.546,-58.76
1257.561,-58.95
1257.576,-58.65
1257.591,-58.56
1257.606,-58.72
1257.621,-58.71
1257.636,-58.79
1257.651,-58.4
1257.666,-58.54
1257.681,-58.32
1257.696,-58.77
1257.711,-58.7
1257.726,-58.89
1257.741,-58.44
1257.756,-58.5
1257.771,-58.89
1257.786,-58.84
1257.801,-58.66
1257.816,-58.3
1257.831,-58.41
1257.846,-58.3
1257.861,-58.87
1257.876,-58.32
1257.891,-58.24
1257.906,-58.24
1257.921,-58.65
1257.936,-58.88
1257.951,-58.47
1257.966,-58.53
1257.981,-58.49
1257.996,-58.91
1258.011,-58.73
1258.026,-58.74
1258.041,-58.28
1258.056,-58.24
1258.071,-58.5
1258.086,-58.87
1258.101,-58.6
1258.116,-58.31
1258.131,-58.56
1258.146,-58.57
1258.161,-59.17
1258.176,-58.85
1258.191,-58.78
1258.206,-58.66
1258.221,-58.9
1258.236,-59.26
1258.251,-58.95
1258.266,-58.74
1258.281,-58.59
1258.296,-58.95
1258.311,-59.41
1258.326,-59.47
1258.341,-59.04
1258.356,-58.93
1258.371,-59.35
1258.386,-59.42
1258.401,-59.19
1258.416,-58.9
1258.431,-58.58
1258.446,-58.59
1258.461,-58.99
1258.476,-58.77
1258.491,-58.29
1258.506,-57.94
1258.521,-58.26
1258.536,-58.52
1258.551,-58.52
1258.566,-58.45
1258.581,-58.23
1258.596,-58.5
1258.611,-59.03
1258.626,-59.13
1258.641,-58.76
1258.656,-58.74
1258.671,-59.0
1258.686,-59.24
1258.701,-59.47
1258.716,-58.86
1258.731,-58.48
1258.746,-58.56
1258.761,-59.11
1258.776,-59.05
1258.791,-58.5
1258.806,-58.11
1258.821,-58.31
1258.836,-58.89
1258.851,-59.07
1258.866,-58.82
1258.881,-58.56
1258.896,-58.63
1258.911,-59.13
1258.926,-59.35
1258.941,-58.79
1258.956,-58.64
1258.971,-58.75
1258.986,-59.0
1259.001,-59.1
1259.016,-58.85
1259.031,-58.37
1259.046,-58.24
1259.061,-58.67
1259.076,-58.69
1259.091,-58.4
1259.106,-58.11
1259.121,-58.24
1259.136,-58.41
1259.151,-58.53
1259.166,-58.5
1259.181,-58.09
1259.196,-58.18
1259.211,-58.77
1259.226,-58.98
1259.241,-58.67
1259.256,-58.58
1259.271,-58.45
1259.286,-58.63
1259.301,-58.77
1259.316,-58.65
1259.331,-58.04
1259.346,-58.02
1259.361,-58.29
1259.376,-58.37
1259.391,-58.29
1259.406,-58.13
1259.421,-58.19
1259.436,-58.38
1259.451,-58.76
1259.466,-58.76
1259.481,-58.54
1259.496,-58.51
1259.511,-59.02
1259.526,-59.31
1259.541,-59.08
1259.556,-58.88
1259.571,-58.62
1259.586,-58.62
1259.601,-58.94
1259.616,-58.66
1259.631,-58.13
1259.646,-57.9
1259.661,-58.19
1259.676,-58.16
1259.691,-57.99
1259.706,-57.59
1259.721,-57.58
1259.736,-57.75
1259.751,-58.12
1259.766,-58.22
1259.781,-57.79
1259.796,-57.88
1259.811,-58.36
1259.826,-58.59
1259.841,-58.39
1259.856,-58.19
1259.871,-57.99
1259.886,-58.05
1259.901,-58.4
1259.916,-58.15
1259.931,-57.75
1259.946,-57.64
1259.961,-57.77
1259.976,-57.94
1259.991,-57.86
1260.006,-57.58
1260.021,-57.57
1260.036,-57.8
1260.051,-58.22
1260.066,-58.44
1260.081,-58.0
1260.096,-57.91
1260.111,-58.14
1260.126,-58.45
1260.141,-58.29
1260.156,-58.1
1260.171,-57.89
1260.186,-57.98
1260.201,-58.4
1260.216,-58.08
1260.231,-57.75
1260.246,-57.57
1260.261,-57.7
1260.276,-57.98
1260.291,-57.98
1260.306,-57.66
1260.321,-57.38
1260.336,-57.63
1260.351,-57.88
1260.366,-58.2
1260.381,-57.77
1260.396,-57.71
1260.411,-57.92
1260.426,-58.13
1260.441,-58.19
1260.456,-57.87
1260.471,-57.6
1260.486,-57.5
1260.501,-57.88
1260.516,-57.89
1260.531,-57.53
1260.546,-57.17
1260.561,-57.22
1260.576,-57.46
1260.591,-57.6
1260.606,-57.37
1260.621,-57.16
1260.636,-57.37
1260.651,-57.75
1260.666,-57.42
1260.681,-57.29
1260.696,-57.22
1260.711,-57.54
1260.726,-57.94
1260.741,-58.18
1260.756,-57.88
1260.771,-57.59
1260.786,-57.86
1260.801,-58.16
1260.816,-58.13
1260.831,-57.85
1260.846,-57.7
1260.861,-57.86
1260.876,-58.12
1260.891,-58.26
1260.906,-57.79
1260.921,-57.8
1260.936,-57.92
1260.951,-58.36
1260.966,-58.2
1260.981,-57.85
1260.996,-57.74
1261.011,-57.79
1261.026,-58.19
1261.041,-57.91
1261.056,-57.73
1261.071,-57.38
1261.086,-57.68
1261.101,-57.92
1261.116,-58.09
1261.131,-57.72
1261.146,-57.6
1261.161,-58.08
1261.176,-58.13
1261.191,-58.4
1261.206,-57.99
1261.221,-57.97
1261.236,-58.32
1261.251,-58.69
1261.266,-58.56
1261.281,-58.08
1261.297,-58.24
1261.312,-58.39
1261.326,-58.85
1261.341,-58.76
1261.356,-58.54
1261.371,-58.02
1261.386,-58.24
1261.401,-58.63
1261.417,-58.33
1261.432,-58.12
1261.447,-57.84
1261.461,-58.17
1261.476,-58.28
1261.491,-58.31
1261.506,-58.04
1261.521,-57.76
1261.536,-58.21
1261.552,-58.24
1261.567,-58.36
1261.582,-57.97
1261.597,-58.06
1261.611,-58.25
1261.626,-58.69
1261.641,-58.48
1261.656,-58.04
1261.672,-58.64
1261.687,-58.67
1261.702,-59.12
1261.717,-58.63
1261.732,-58.38
1261.746,-57.92
1261.761,-58.29
1261.776,-58.33
1261.792,-57.99
1261.807,-57.88
1261.822,-57.61
1261.837,-57.95
1261.852,-57.78
1261.867,-57.9
1261.882,-57.45
1261.896,-57.41
1261.911,-57.87
1261.927,-58.08
1261.942,-58.03
1261.957,-57.47
1261.972,-57.72
1261.987,-57.81
1262.002,-58.25
1262.017,-58.17
1262.031,-57.75
1262.047,-57.72
1262.062,-57.84
1262.077,-58.24
1262.092,-57.88
1262.107,-57.72
1262.122,-57.41
1262.137,-57.79
1262.152,-58.05
1262.167,-57.98
1262.182,-57.66
1262.197,-57.45
1262.212,-57.83
1262.227,-58.13
1262.242,-57.98
1262.257,-57.44
1262.272,-57.5
1262.287,-57.73
1262.302,-57.87
1262.317,-57.78
1262.332,-57.38
1262.347,-57.25
1262.362,-57.41
1262.377,-57.75
1262.392,-57.6
1262.407,-57.31
1262.422,-57.32
1262.437,-57.59
1262.452,-57.94
1262.467,-57.97
1262.482,-57.67
1262.497,-57.75
1262.512,-58.12
1262.527,-58.57
1262.542,-58.18
1262.557,-58.07
1262.572,-58.09
1262.587,-58.26
1262.602,-58.49
1262.617,-58.31
1262.632,-57.79
1262.647,-57.88
1262.662,-58.04
1262.677,-58.22
1262.692,-57.97
1262.707,-57.67
1262.722,-57.69
1262.737,-57.83
1262.752,-58.32
1262.767,-57.92
1262.782,-57.86
1262.797,-57.85
1262.812,-58.23
1262.827,-58.45
1262.842,-57.97
1262.857,-57.92
1262.872,-57.74
1262.887,-58.3
1262.902,-58.26
1262.917,-58.24
1262.932,-57.71
1262.947,-57.68
1262.962,-58.31
1262.977,-58.36
1262.992,-58.34
1263.007,-57.88
1263.022,-58.12
1263.037,-58.27
1263.052,-58.8
1263.067,-58.55
1263.082,-58.08
1263.097,-58.55
1263.112,-58.85
1263.127,-59.12
1263.142,-58.68
1263.157,-58.49
1263.172,-58.07
1263.187,-58.48
1263.202,-58.75
1263.217,-58.36
1263.232,-57.88
1263.247,-57.7
1263.262,-58.27
1263.277,-58.19
1263.292,-58.19
1263.307,-57.77
1263.322,-57.69
1263.337,-58.13
1263.352,-58.1
1263.367,-58.17
1263.382,-57.73
1263.397,-57.94
1263.412,-58.23
1263.427,-58.64
1263.442,-58.28
1263.457,-57.98
1263.472,-57.98
1263.487,-58.26
1263.502,-58.46
1263.517,-58.0
1263.532,-57.74
1263.547,-57.59
1263.562,-58.01
1263.577,-57.96
1263.592,-57.83
1263.607,-57.67
1263.622,-57.57
1263.637,-57.93
1263.652,-57.77
1263.667,-57.75
1263.682,-57.38
1263.697,-57.54
1263.712,-57.79
1263.727,-57.75
1263.742,-57.75
1263.757,-57.36
1263.772,-57.75
1263.787,-57.74
1263.802,-58.13
1263.817,-57.73
1263.832,-57.43
1263.847,-57.84
1263.862,-57.95
1263.877,-58.27
1263.892,-57.72
1263.907,-57.78
1263.922,-57.86
1263.937,-58.26
1263.952,-58.32
1263.967,-57.72
1263.982,-57.7
1263.997,-57.63
1264.012,-58.14
1264.027,-57.85
1264.042,-57.87
1264.057,-57.8
1264.072,-58.07
1264.087,-58.51
1264.102,-57.96
1264.117,-57.75
1264.132,-57.57
1264.147,-57.81
1264.162,-57.92
1264.177,-57.79
1264.192,-57.49
1264.207,-57.43
1264.222,-57.74
1264.237,-57.78
1264.252,-57.94
1264.267,-57.45
1264.282,-57.54
1264.297,-57.89
1264.312,-57.78
1264.327,-57.88
1264.342,-57.47
1264.357,-57.8
1264.372,-57.85
1264.387,-58.35
1264.402,-58.07
1264.417,-58.02
1264.432,-57.99
1264.447,-58.29
1264.462,-58.61
1264.477,-58.2
1264.492,-58.0
1264.507,-57.78
1264.522,-58.29
1264.537,-58.24
1264.552,-58.22
1264.567,-58.08
1264.582,-58.02
1264.597,-58.53
1264.612,-58.3
1264.627,-58.27
1264.642,-57.92
1264.657,-58.11
1264.672,-58.41
1264.687,-58.28
1264.702,-58.08
1264.717,-57.81
1264.732,-58.27
1264.747,-58.32
1264.762,-58.56
1264.777,-58.07
1264.792,-58.35
1264.807,-58.44
1264.822,-58.34
1264.837,-58.39
1264.852,-58.0
1264.867,-58.12
1264.882,-58.16
1264.897,-58.6
1264.912,-58.42
1264.927,-58.19
1264.942,-58.28
1264.957,-58.52
1264.972,-58.84
1264.987,-58.46
1265.002,-58.48
1265.017,-58.25
1265.032,-58.64
1265.047,-58.61
1265.062,-58.24
1265.077,-58.34
1265.092,-58.1
1265.107,-58.49
1265.122,-58.46
1265.137,-58.52
1265.152,-58.22
1265.167,-58.43
1265.182,-58.67
1265.197,-58.63
1265.212,-58.51
1265.227,-58.2
1265.242,-58.64
1265.257,-58.52
1265.272,-58.55
1265.287,-58.53
1265.302,-58.07
1265.317,-58.67
1265.332,-58.54
1265.347,-58.7
1265.362,-58.31
1265.377,-58.47
1265.392,-58.39
1265.407,-58.86
1265.422,-58.72
1265.437,-58.35
1265.452,-58.37
1265.467,-58.19
1265.482,-58.54
1265.497,-58.31
1265.512,-58.38
1265.527,-58.39
1265.542,-58.53
1265.557,-58.73
1265.572,-58.41
1265.587,-58.51
1265.602,-58.18
1265.617,-58.66
1265.632,-58.63
1265.647,-58.66
1265.662,-58.41
1265.677,-58.34
1265.692,-58.81
1265.707,-58.77
1265.722,-58.86
1265.737,-58.5
1265.752,-58.63
1265.767,-58.73
1265.782,-58.85
1265.797,-58.53
1265.812,-57.99
1265.827,-58.22
1265.842,-58.4
1265.857,-58.68
1265.872,-58.41
1265.887,-58.24
1265.902,-58.19
1265.917,-58.6
1265.932,-58.78
1265.947,-58.37
1265.962,-58.19
1265.977,-57.97
1265.992,-58.56
1266.007,-58.61
1266.022,-58.55
1266.037,-58.41
1266.052,-58.74
1266.067,-59.11
1266.082,-58.58
1266.097,-58.56
1266.112,-58.19
1266.127,-58.45
1266.142,-58.44
1266.157,-58.5
1266.172,-58.01
1266.187,-57.95
1266.202,-58.39
1266.217,-58.4
1266.232,-58.6
1266.247,-58.01
1266.262,-58.24
1266.277,-58.5
1266.292,-58.41
1266.307,-58.53
1266.322,-58.1
1266.337,-58.43
1266.352,-58.34
1266.367,-58.79
1266.382,-58.34
1266.397,-58.23
1266.412,-58.14
1266.427,-58.46
1266.442,-58.58
1266.457,-58.11
1266.472,-58.11
1266.487,-58.02
1266.502,-58.5
1266.517,-58.46
1266.532,-58.04
1266.547,-58.11
1266.562,-58.14
1266.577,-58.5
1266.592,-58.3
1266.607,-58.33
1266.622,-58.36
1266.637,-58.45
1266.652,-58.62
1266.667,-58.72
1266.682,-58.87
1266.697,-58.43
1266.712,-58.93
1266.727,-58.94
1266.742,-58.97
1266.757,-58.94
1266.772,-58.76
1266.787,-59.0
1266.802,-58.95
1266.817,-59.13
1266.832,-58.85
1266.847,-59.08
1266.862,-59.01
1266.877,-58.95
1266.892,-59.11
1266.907,-58.72
1266.922,-58.7
1266.937,-58.68
1266.952,-58.76
1266.967,-58.39
1266.982,-58.7
1266.997,-58.65
1267.012,-58.49
1267.027,-58.51
1267.042,-58.21
1267.057,-58.04
1267.072,-58.07
1267.087,-58.0
1267.102,-57.93
1267.117,-57.94
1267.132,-57.87
1267.147,-57.9
1267.162,-57.79
1267.177,-57.98
1267.192,-57.97
1267.207,-57.96
1267.222,-57.94
1267.237,-57.75
1267.252,-57.86
1267.267,-57.85
1267.282,-57.96
1267.297,-58.01
1267.312,-58.09
1267.327,-58.02
1267.342,-57.8
1267.357,-58.04
1267.372,-57.79
1267.387,-57.93
1267.402,-57.84
1267.417,-57.85
1267.432,-57.66
1267.447,-57.76
1267.462,-57.75
1267.477,-57.8
1267.492,-58.02
1267.507,-57.54
1267.522,-57.69
1267.537,-57.82
1267.552,-57.63
1267.567,-57.82
1267.582,-57.81
1267.597,-57.85
1267.612,-57.79
1267.627,-57.71
1267.642,-57.79
1267.657,-57.91
1267.672,-57.87
1267.687,-57.68
1267.702,-58.01
1267.717,-57.84
1267.732,-57.93
1267.747,-57.82
1267.762,-57.75
1267.777,-57.92
1267.792,-57.9
1267.807,-57.94
1267.822,-57.81
1267.837,-58.01
1267.852,-58.12
1267.867,-57.98
1267.882,-57.88
1267.897,-57.98
1267.912,-58.6
1267.927,-58.65
1267.942,-58.42
1267.957,-58.29
1267.972,-58.6
1267.987,-58.82
1268.002,-58.75
1268.017,-58.56
1268.032,-58.51
1268.047,-59.02
1268.062,-59.22
1268.077,-58.95
1268.092,-58.91
1268.107,-58.99
1268.122,-59.74
1268.137,-59.89
1268.152,-59.8
1268.167,-59.86
1268.182,-60.15
1268.197,-60.33
1268.212,-60.55
1268.227,-60.24
1268.242,-60.13
1268.257,-61.05
1268.272,-61.08
1268.287,-60.99
1268.302,-60.6
1268.317,-60.7
1268.332,-60.81
1268.347,-61.36
1268.362,-61.1
1268.377,-60.6
1268.392,-60.7
1268.407,-60.82
1268.422,-61.08
1268.437,-60.7
1268.452,-59.99
1268.467,-60.15
1268.482,-60.18
1268.497,-60.19
1268.512,-60.25
1268.527,-59.83
1268.542,-59.73
1268.557,-59.91
1268.572,-60.09
1268.587,-59.51
1268.602,-59.12
1268.617,-59.38
1268.632,-59.58
1268.647,-59.74
1268.662,-58.85
1268.677,-59.05
1268.692,-59.07
1268.707,-59.09
1268.722,-58.9
1268.737,-58.5
1268.752,-58.57
1268.767,-58.59
1268.782,-58.82
1268.797,-58.4
1268.812,-58.33
1268.827,-58.28
1268.842,-58.63
1268.857,-58.48
1268.872,-58.09
1268.887,-58.29
1268.902,-58.25
1268.917,-58.15
1268.932,-57.91
1268.947,-58.01
1268.962,-58.02
